# Small subsample from the center of the m4l packing from the N-RLP dataset of jammed spheres
# available at http://www-levich.engr.ccny.cuny.edu/webpage/hmakse/software-and-data/
# Data format for the particles: particle ID, x-coordinate, y-coordinate, z-coordinate, radius of the particle
# DEM parameters on the line below: Number of particles, grain size mean, grain size range, stress/strain mask, stress/strain rates, Young modulus, density, Poisson ratio, friction angle, damping coefficient 
1638 10 0 -1 -1 -1 -1 -1 -1 -1
# Limits on the line below: x_min, x_max, y_min, y_max, z_min, z_max (used for subsampling)
102.808 308.219 102.814 308.225 102.764 308.175
0	148.16	183.68	101.2	10
1	178	260.78	131.29	10
20	271.82	205.77	248.26	10
24	212.12	114.93	188.94	10
25	215.62	152.76	316.37	10
30	302.08	149.71	142.61	10
39	283.89	178.16	193.53	10
40	217.73	201.1	102	10
63	136.1	107.23	99.344	10
64	273.1	272.12	274.08	10
74	179.34	111.8	128.72	10
81	313.04	144.2	262.23	10
94	117.83	276.95	117.78	10
103	134.15	150.57	315.69	10
108	168.83	168.25	269.3	10
120	155	288.02	115.94	10
125	284.21	286.23	315.43	10
127	270.01	113.65	285.75	10
145	129.76	156.83	117.09	10
156	293.73	154.9	96.067	10
159	97.271	227.02	235.61	10
166	120.85	142.85	202.41	10
178	245.1	297.53	255.51	10
181	268.79	217.52	119.55	10
191	177.36	185.29	263.21	10
194	144.04	245.14	234.15	10
205	242.69	220.48	156.55	10
208	124.52	243.25	102.78	10
217	100.26	181.96	100.2	10
220	162.95	195.54	142.1	10
221	243.51	167.48	99.74	10
242	282.45	236.24	175.21	10
243	119.11	300.42	155.72	10
250	251.72	133.17	310.25	10
254	205.04	249.47	289.99	10
257	148.1	175.41	299.5	10
259	306.87	250.18	255.48	10
274	154.58	308.01	115.96	10
291	100.08	97.804	187.45	10
306	234.31	312.81	138.6	10
310	229.77	195.64	211.99	10
323	316.73	147.97	221.57	10
324	192.68	147.71	233.77	10
325	249.98	268.36	163.05	10
330	204.88	175.28	96.997	10
340	160.55	178.84	254.49	10
348	202.73	180.29	168.64	10
350	136.86	182.14	314.61	10
355	163.89	317.92	140.84	10
367	134.86	187.34	223.45	10
368	248.93	199.8	143.63	10
377	172.47	257.71	302.77	10
380	170.52	283.29	131.44	10
385	233.28	305.87	119.87	10
389	134.72	309.92	231.55	10
391	235.18	288.16	202.52	10
393	214.74	180.12	206.88	10
412	123.43	307.66	266.63	10
420	127.45	268.41	266.97	10
431	242.4	237.95	255.4	10
434	200.11	196.53	180.01	10
436	111.63	299.37	137.2	10
451	183.01	290.65	194.78	10
461	215.04	259.57	275.92	10
464	220.54	309.57	189.22	10
465	229.97	263.75	195.07	10
466	124.84	192.92	132.57	10
470	154.66	228.4	133.29	10
475	162.2	289.66	227.51	10
485	310.12	118.23	310.91	10
486	263.22	93.393	191.71	10
490	173.11	154.06	186.42	10
491	177.51	163.17	286.59	10
501	285.06	258.63	164.69	10
515	181.55	168.61	305.4	10
518	248.75	187.43	310.85	10
519	172.47	181.5	152.7	10
520	252.25	93.629	317.46	10
541	97.664	211.57	200.13	10
568	114.25	217.89	252.47	10
573	233.85	140.44	288.99	10
582	277.91	153.33	213.7	10
603	165.43	171.85	222.72	10
607	159.8	150.94	170.23	10
610	257.85	208.46	234.21	10
613	313	283.76	261.45	10
616	234.98	185.87	228.64	10
618	124.74	126.97	190.89	10
628	276.39	263.54	311.41	10
631	196.54	298.31	207.36	10
635	213.74	230.89	277.24	10
642	195.25	296.09	290.05	10
647	202.1	190.89	109.18	10
650	109.47	100.14	204.98	10
656	162.81	112.98	275.12	10
658	138.6	131.7	217.7	10
661	226.56	139.3	234.79	10
662	145.7	140.13	296.55	10
667	237.4	170.45	291.33	10
670	162.76	261.15	144.24	10
680	231.94	239.64	130.99	10
682	215.45	103.53	252.26	10
690	176.33	134.12	302.78	10
692	246.22	135.56	229.24	10
699	149.17	142.76	155.39	10
702	187.8	214.46	136.21	10
703	166.11	106.35	244.76	10
709	211.95	167.82	145.74	10
710	139.83	240.69	179.95	10
713	217.05	244.26	166.98	10
716	182.24	215.62	215.47	10
720	286.29	142.7	152.68	10
722	111.73	106.7	276.97	10
731	302.61	263.25	146	10
744	133.13	231.79	317.01	10
746	146.31	194.9	242.54	10
748	107.93	303.56	192.27	10
752	270.21	299.55	134.48	10
754	137.65	158.45	297.64	10
756	229.98	146.95	201.26	10
765	315.39	159.56	282.89	10
778	181.1	134	129.03	10
784	225.79	256.21	121.63	10
805	224.77	170.26	177.17	10
806	269.97	271.52	162.19	10
811	160.74	235.98	240.25	10
829	306.29	207.36	304.81	10
846	242.19	106.17	305.13	10
856	284.48	185.69	107.69	10
866	231.39	123.27	223.85	10
870	312.83	128.27	107.18	10
873	166.24	271.29	220.71	10
874	123.46	283.68	245.85	10
875	140.6	222.04	170.14	10
883	99.32	107.39	293.06	10
897	108.85	316.71	146.76	10
901	105.39	240.51	111.15	10
906	153.75	152.49	191.21	10
907	194.14	106.55	146.6	10
923	205.33	299.65	145.6	10
933	192.16	99.282	94.191	10
941	220.05	179.91	288.22	10
942	121.58	151.62	287.6	10
944	297.75	247.79	276.58	10
950	212.29	122.48	105.98	10
955	301.98	129.97	216.75	10
956	300.66	170.27	186.01	10
958	115.08	292.01	279.58	10
962	311.47	226.67	304.88	10
964	220.12	181.31	108.99	10
965	237.99	159.01	117	10
970	132.63	223.59	190.91	10
983	117.55	113.57	256.75	10
996	170.56	240.31	186.82	10
1005	297.05	300.76	279.9	10
1011	201.77	142.7	138.15	10
1018	196.39	161.49	171.12	10
1024	191.18	306.49	185.69	10
1029	273.85	164.56	123.05	10
1031	219.23	119.12	312.43	10
1037	304.32	155.97	172.52	10
1041	297.66	305.86	174.13	10
1045	169.25	278.45	261.9	10
1046	176.01	292.07	293.76	10
1058	109.45	300.71	217.41	10
1064	125.89	102.75	219.61	10
1087	140.48	93.282	254.78	10
1094	293.36	104.97	126.85	10
1096	315.19	295.62	145.95	10
1111	164.38	208.34	181.58	10
1115	101.38	251.81	253.68	10
1116	252.79	136.45	283.95	10
1118	197.71	141.04	266.45	10
1122	304.96	266.26	234.49	10
1127	94.947	270.5	256.75	10
1129	238.71	142.65	149.41	10
1144	285.56	310.92	189.23	10
1148	144.56	157.99	231.63	10
1156	155.29	289.21	304.76	10
1166	122.1	250.09	131.5	10
1167	229.95	265.6	292.69	10
1173	267.13	130.21	231.01	10
1175	183.28	180.13	226.32	10
1177	100.24	188.03	242.69	10
1187	124.94	167.09	242.55	10
1191	145.52	181.75	280.71	10
1197	126.82	164.12	202.86	10
1198	251.94	206.65	303.9	10
1202	272.05	303.48	234.56	10
1209	263.61	269.75	126.21	10
1226	156.87	205.31	114.39	10
1227	116.81	291.23	299.49	10
1228	310.82	204.8	158.85	10
1229	187.41	208.8	170.61	10
1239	279.43	181.4	289.78	10
1241	153.64	194.22	223.63	10
1246	155.6	129.84	205.44	10
1251	257.72	103.78	208.81	10
1254	215.43	194.87	192.77	10
1263	196.08	140.42	163.76	10
1273	170.58	296.53	270.33	10
1279	290.14	200.58	195.98	10
1294	212.92	96.886	290.87	10
1300	200.15	126.11	150.4	10
1304	286.95	275.65	198.06	10
1315	256.88	93.149	225.73	10
1317	271.44	93.386	167.07	10
1323	203.87	109.14	168.36	10
1325	194.35	133.73	197.1	10
1327	283.16	256.4	202.51	10
1335	131.41	301.7	191.29	10
1336	293.7	112.74	177.52	10
1360	190.27	305.36	117.48	10
1371	221.47	291.39	225.58	10
1389	239.1	114.73	207.49	10
1393	193.6	289.71	240.37	10
1396	134.9	133.83	112.17	10
1399	240.95	298.98	302.18	10
1407	318.19	152.89	312.81	10
1410	208.04	182.94	133.14	10
1413	130.57	200.88	256.25	10
1420	211.9	112.67	139.75	10
1422	277.94	280	253.74	10
1425	157.58	100.11	154.42	10
1426	192.23	134.17	248.48	10
1432	228.57	197.93	264.48	10
1441	265.93	209.58	267.01	10
1473	230.18	159.84	143.78	10
1477	247.13	150.24	180.7	10
1480	211.21	178.88	317.28	10
1481	149.92	304.16	95.336	10
1484	247.42	254.41	197.97	10
1498	96.864	207.61	240.41	10
1502	111.67	124.78	285.52	10
1511	245.49	117.25	174.38	10
1514	209.33	254.35	213.91	10
1518	169.56	144.01	203.34	10
1532	167.32	274.32	108.15	10
1534	234.25	131.37	165.76	10
1544	302.92	215.35	266.22	10
1558	223.63	95.9	192.24	10
1566	224.64	251.17	305.48	10
1573	269.82	189.63	274.29	10
1583	189.48	125.65	290.32	10
1584	155.65	224.7	266.11	10
1585	236.59	163.22	191.68	10
1589	247.8	160.13	153.24	10
1593	125.66	170.31	102.89	10
1606	109.16	128.46	221.35	10
1615	140.59	305.41	298.91	10
1624	195.1	198.34	292.52	10
1628	306.78	171.08	296.79	10
1630	163.17	245.38	204.71	10
1639	168.84	299.51	317.58	10
1647	178.05	172.94	134.56	10
1651	92.813	143.53	190.28	10
1680	114.52	258.3	111.34	10
1684	303.8	131.27	296.52	10
1685	284.14	243.53	259.38	10
1686	126.59	225.59	278.55	10
1695	308.99	93.765	132.32	10
1697	200.27	281.06	197.96	10
1702	194.6	231.1	270.65	10
1706	190.8	247.75	104.37	10
1709	129.02	268.18	101.74	10
1711	298.07	112.74	238.72	10
1718	211.64	170.92	254.8	10
1722	252.87	235.17	198.15	10
1723	293.44	294.26	245.24	10
1727	171.23	198.11	293.57	10
1757	253.8	310	291.53	10
1759	199.13	168.35	202.68	10
1760	153.6	165.05	93.55	10
1765	250.44	184.97	106.54	10
1769	168.4	93.06	125.26	10
1771	164.13	179.38	204.24	10
1777	177.25	255.63	214.53	10
1779	294.23	106.19	196.41	10
1783	313.55	238.63	208.17	10
1785	204.44	257.59	93.547	10
1786	173.46	228.09	140.09	10
1798	141.4	104.36	184.55	10
1805	304.9	228.82	286.12	10
1808	119.82	203.9	289.19	10
1811	111.8	236.5	245.57	10
1820	244.73	112.05	105.71	10
1821	150.35	214.94	194.22	10
1825	119.89	274.9	137.57	10
1830	108.97	117.08	117.88	10
1834	128.43	206.28	223.76	10
1845	244.07	173.27	138.63	10
1851	237.01	210.74	201.06	10
1856	315.62	99.998	317.45	10
1858	154.06	144.67	127.81	10
1861	114.11	267.15	252.12	10
1866	144.66	153.03	251.01	10
1867	288.98	253.15	183.65	10
1872	259.81	252.51	94.86	10
1873	240	243.46	236.32	10
1874	301.99	136.06	127.99	10
1878	119.72	296.81	119.09	10
1886	136.3	250.6	162.93	10
1888	157.17	94.131	270.27	10
1906	128.69	93.203	168.41	10
1909	291.25	172.64	245.73	10
1911	106.15	203.18	171.09	10
1912	118.11	127.46	142.09	10
1934	308.98	161.63	128.05	10
1938	279.87	182.96	174.54	10
1945	303.02	116.72	94.129	10
1965	254.94	286.99	131.49	10
1970	247.06	230.58	121.53	10
1983	313.84	275.9	179.77	10
1985	192.46	198.06	224.71	10
2003	93.835	160.27	269.76	10
2005	257.66	269.93	224.2	10
2020	264.73	109.51	260.58	10
2031	188.3	296.89	135.49	10
2039	112.66	317.02	206.28	10
2043	118.54	166.25	130.69	10
2044	212.04	267.42	228.81	10
2047	103.34	280.54	224.62	10
2048	100.95	124.95	302.48	10
2050	179.78	190.6	209.64	10
2056	111.36	195.5	257.54	10
2057	197.53	248.68	168.09	10
2058	285.89	227.81	147.8	10
2065	196.1	295.42	101.05	10
2072	279.29	140.54	311.79	10
2082	99.734	189.75	125.7	10
2084	135.2	260.19	224.39	10
2086	197.62	97.674	225.6	10
2097	254.48	309.17	242.23	10
2103	135.81	238.95	266.86	10
2107	294.58	121.79	116.1	10
2119	222.66	156.32	284.24	10
2126	116.92	183.14	315.68	10
2130	208.51	282.33	136.12	10
2131	194.3	203.44	204.71	10
2136	97.821	144.78	223.61	10
2183	138.85	267.02	205.95	10
2189	230.03	267.15	316.23	10
2192	249.33	283	189.36	10
2193	237.7	229.49	103.89	10
2208	293.75	285.73	120.8	10
2212	124.03	233.23	170.21	10
2213	122.16	192.85	177.15	10
2215	264.9	178.55	199.79	10
2218	237	208.69	96.499	10
2229	276	155.29	105.32	10
2231	134.11	153.03	147.17	10
2236	211.84	212.5	201.5	10
2244	144.8	293.72	237.56	10
2248	209	262.98	160.11	10
2251	184.7	276.83	226.07	10
2253	169.92	146.19	115.72	10
2270	290.39	229.67	272.38	10
2272	201.42	226.96	128.58	10
2274	214.37	166.05	301.48	10
2277	117.37	180.81	279.67	10
2284	201.82	145.57	303.8	10
2295	143.33	138.25	237.6	10
2296	301.31	195.47	267.74	10
2297	256.23	154.67	274.32	10
2305	178.55	243.49	269.33	10
2327	278.49	216.18	281.1	10
2332	213.08	115.36	225.3	10
2337	303.22	139.76	314.61	10
2344	122.25	140.22	156.93	10
2350	196.65	136.22	114.52	10
2351	193.55	264.74	207.37	10
2354	230.75	173.51	158.36	10
2355	307.38	171.4	102.43	10
2377	246.48	130.94	112.03	10
2391	92.917	246.53	236.35	10
2407	214.24	276.42	286.67	10
2408	316.93	221.96	172.5	10
2411	138.36	302.22	254.48	10
2415	95.321	233.06	216.65	10
2429	257.69	125.45	127.66	10
2444	224.53	101.79	234.53	10
2448	213.55	285.48	105.32	10
2453	276.8	200.22	229.7	10
2454	131.92	167.1	280.27	10
2455	176.37	113.21	298.87	10
2459	101.26	142.01	244.19	10
2462	104.86	168.05	216.53	10
2472	144.74	140.38	178.1	10
2479	158.5	193.49	308.29	10
2484	180.76	230.81	100.88	10
2488	124.97	241.66	194.75	10
2491	206.68	247.93	116.52	10
2496	175.42	126.28	196.17	10
2497	180.37	163.21	116.81	10
2515	273.96	297.43	263.65	10
2517	162.22	199.59	206.38	10
2519	232.76	212.2	305	10
2521	238.59	234.06	278.03	10
2547	147.22	223	151.05	10
2550	179.05	271.62	149.26	10
2554	101.38	314.1	128.39	10
2556	291.08	124.45	310.36	10
2560	93.067	157.67	296.57	10
2568	134.82	156.52	186.18	10
2572	202.8	245.49	135.98	10
2583	131.24	314.58	121.56	10
2588	259.2	300.27	191.42	10
2591	248.54	153.9	292.77	10
2592	113.49	93.3	292.35	10
2593	107.26	242.7	164.81	10
2606	172.29	119.85	177.5	10
2617	121.99	139.99	303.86	10
2623	161.72	140.3	246.03	10
2633	188.61	106.12	209.87	10
2634	260.47	110.93	311.7	10
2635	186.15	220.71	117.28	10
2640	153.8	261.03	241.38	10
2641	107.57	163.5	97.758	10
2648	99.725	296.48	119.07	10
2650	109.88	306.35	310.6	10
2668	202.44	175.19	280	10
2670	206.83	106.63	270.04	10
2671	309.43	173.11	203.76	10
2672	126.29	181.61	193.18	10
2674	179.66	235.98	167	10
2677	157.97	300.86	250.81	10
2687	146.99	130.1	139.54	10
2689	121.31	230.34	117.71	10
2710	304.68	217.26	195.65	10
2713	93.649	200.51	96.69	10
2715	187.83	269.59	314.72	10
2718	195.63	214.33	187.99	10
2727	135.79	117.03	249.29	10
2735	104.79	149.58	154.21	10
2736	279.47	130.77	254.43	10
2752	278.55	262.45	146.17	10
2753	241.49	211.86	287.01	10
2762	178.79	273.49	183.24	10
2779	288.7	107.13	146.18	10
2787	244.03	134.11	207.37	10
2791	219.36	103.47	123.64	10
2794	231.46	293.18	100.84	10
2796	205.67	103.87	109.06	10
2797	290.4	175.52	159.06	10
2806	137.13	202.45	119.99	10
2813	201.75	276.77	302.29	10
2814	288.25	258.39	226.83	10
2815	314.05	243.95	175.74	10
2816	177.41	231.31	305.88	10
2827	299.18	132.67	237.5	10
2831	245.61	118.42	240.78	10
2833	134.33	142.44	130.21	10
2839	131.68	174.26	167.05	10
2842	165.23	175.72	314.51	10
2843	137.53	282.71	281.45	10
2848	151.73	268.77	304.76	10
2850	310.13	259.94	310.3	10
2856	107.44	217.37	111.45	10
2859	239.49	278.33	255.96	10
2863	190.25	238.61	183.76	10
2865	201.99	215.59	218.63	10
2867	193.06	96.364	259.8	10
2872	188.7	122.01	166.28	10
2881	204.87	125.41	276.65	10
2892	205.66	135.86	220.36	10
2897	199.95	101.65	128.1	10
2905	163.64	159.21	252.23	10
2909	292.84	105.89	258.28	10
2911	236.47	293.08	136.12	10
2916	268.67	223.18	138.74	10
2924	137.17	126.8	156.65	10
2932	306.15	94.647	268.29	10
2936	315.33	107.57	280.48	10
2947	249.54	200.41	164.95	10
2961	263.1	127.38	269.42	10
2962	143.15	161.79	131.42	10
2982	317.78	264.3	122.96	10
2983	117.91	280.5	156.97	10
3002	128.83	189.64	106.96	10
3005	259.65	161.48	214.37	10
3006	175.12	149.25	272.34	10
3021	106.71	257.67	289.31	10
3024	97.688	213.13	220.06	10
3027	238.32	170.71	246.37	10
3033	267.98	239.82	248.19	10
3041	164.15	276.28	290.62	10
3050	142.48	202.85	100.73	10
3055	113.4	238.55	286.16	10
3056	142.81	134.03	257.15	10
3060	296.75	147.02	190.64	10
3069	176.73	162.01	151.25	10
3074	210	263.4	196.09	10
3095	251.31	302.89	111.75	10
3101	252.03	227.6	234.45	10
3105	173.29	222.89	231.81	10
3107	285.72	161.26	261.22	10
3114	224.84	142.04	107.45	10
3116	225.06	227.18	204.56	10
3121	153.51	314.37	236.76	10
3129	204.11	153.26	249.21	10
3133	199.59	314.1	94.827	10
3138	177.23	111.49	99.501	10
3140	122.37	169.15	150.11	10
3142	268.29	202.1	132.26	10
3147	283.17	240.85	316.81	10
3150	160.82	256	93.18	10
3170	290.8	210.84	244.31	10
3171	309.92	287.27	236.31	10
3172	303.93	281.99	279.19	10
3181	151.83	109.34	258.44	10
3183	228.52	290.07	177.42	10
3189	274.25	110.47	132.76	10
3194	284.01	120.34	99.179	10
3199	267.38	209.75	178.17	10
3203	179.27	262.5	97.323	10
3210	151.5	237.64	163.99	10
3213	259.44	300.54	309.66	10
3214	205.89	256.08	247.85	10
3247	187.43	181.76	119.25	10
3249	316.41	267.14	250.87	10
3257	169.77	212.83	127.7	10
3265	291.16	152.77	126.14	10
3268	299.68	175.69	139.52	10
3283	284.02	224.38	222.75	10
3287	264.69	164.24	143.11	10
3289	124.57	180.89	261.01	10
3294	176.85	209.64	197.16	10
3297	115.71	259.68	193.52	10
3310	197.06	250.95	270.73	10
3316	275.98	159.79	191.61	10
3319	252.66	314.62	203.72	10
3320	93.827	204.97	137.25	10
3330	238.29	262.21	92.834	10
3333	282.35	163.82	230.14	10
3339	188.02	221.68	254.29	10
3343	210.16	197.62	215.41	10
3345	242.24	253.27	282.85	10
3371	102.81	144.17	307.72	10
3377	278.34	244.89	110.93	10
3380	204.31	99.7	199.28	10
3405	120.31	226.06	137.22	10
3426	124.44	293.09	228.23	10
3427	313.53	251.79	223.23	10
3429	162.56	317.5	198.34	10
3434	289.23	184.63	228.26	10
3440	185.52	269.55	114.97	10
3445	244.29	167.96	309.94	10
3449	190.39	115.98	256.59	10
3453	129.72	103.28	268.91	10
3467	265.29	108.45	178.71	10
3475	134.89	197.14	301.27	10
3480	285.98	217.79	130.29	10
3483	117.26	128.97	104.1	10
3490	185	98.083	115.3	10
3491	130.26	217.04	240.52	10
3507	97.528	192.43	153.84	10
3514	215.27	195	306.16	10
3518	154.7	248.64	304.25	10
3521	291.91	156.06	312.09	10
3524	303.69	173.17	274.07	10
3529	293.69	300.9	107.78	10
3542	128.08	197.55	205.68	10
3553	237.4	226.56	188.83	10
3555	183.72	263.08	262.08	10
3560	307.33	191.32	223.01	10
3567	281.96	101.73	296.48	10
3575	109.86	143.17	268.8	10
3582	217.26	130.91	133.55	10
3587	251.53	276.92	95.732	10
3590	221.63	289.93	123.07	10
3595	224.56	299.98	271.28	10
3597	105.3	115.86	172.3	10
3603	275.62	221.17	163.97	10
3611	120.9	144.63	222.33	10
3617	158.66	308.05	178.64	10
3626	302.21	230.61	136.58	10
3628	265.2	261.43	289.02	10
3640	190.94	287.93	176.62	10
3642	169.59	257.2	176.17	10
3651	238.43	109.44	124.51	10
3652	143.68	248.22	99.948	10
3658	109.98	96.201	119.01	10
3660	280.42	237.35	207.95	10
3661	108.47	267.32	210.52	10
3667	220.17	311.07	152.63	10
3675	157.85	280.34	244.67	10
3677	265.24	138	113.89	10
3684	283.46	141.58	228.93	10
3695	294.03	288.03	295.48	10
3699	270.65	227.1	193.82	10
3701	110.27	220.63	303.67	10
3702	261.46	288.49	286.49	10
3703	265.53	95.043	279.95	10
3706	274.26	123.83	147.64	10
3708	160.45	124	223.94	10
3725	128	186.85	242.23	10
3730	101.89	301.87	268.23	10
3734	268.4	126.88	204.88	10
3738	207.25	142.86	97.968	10
3740	96.313	168.31	182.64	10
3747	153.56	291.59	168.49	10
3754	175.84	234.57	215.78	10
3761	249.09	312.84	223.32	10
3769	241.08	213.33	267.07	10
3777	184.19	149.93	312.16	10
3785	204.2	204.39	261.59	10
3786	166.22	173.17	106.77	10
3790	159.7	124.21	297.74	10
3796	189.67	270.92	166.18	10
3800	288.54	213.82	298.23	10
3802	187.39	214.62	301.2	10
3811	296.05	267.02	127.49	10
3813	128.95	105.96	291.53	10
3818	146.56	105.91	309.85	10
3839	143.66	132.21	314.81	10
3843	260.09	185.3	172.72	10
3856	129.7	161.56	261.17	10
3862	105.84	175.18	256.95	10
3865	210.2	144.47	202.89	10
3867	240.18	208.18	224.85	10
3882	153.1	300.74	141.13	10
3891	178.21	171	169.06	10
3895	97.565	136.42	118.2	10
3898	304.37	179.55	120.46	10
3908	155.38	126.17	168.88	10
3914	233.23	202.14	131.47	10
3916	235.45	124.77	302.19	10
3921	123.65	312.08	102.81	10
3928	186.24	241.35	231.46	10
3930	104.01	304.15	291.16	10
3941	149.02	231.03	114.28	10
3948	236.71	257.32	145.61	10
3956	273.44	287.31	97.854	10
3960	303.82	300.25	130.17	10
3962	205.41	293.19	256.49	10
3967	202.19	228.79	171.07	10
3969	211.21	292.21	165.98	10
3970	226.02	101.08	269.19	10
3991	270.93	196.31	300.93	10
3993	143.74	307.19	279.24	10
3996	314.03	215.71	130.38	10
4011	108.05	265.92	271.14	10
4015	251.96	183.28	238.89	10
4022	316.01	193.22	174.31	10
4027	178.53	193.22	105.49	10
4030	171.42	262.71	277.85	10
4032	116.9	147.87	138.39	10
4035	178.74	194.56	184.17	10
4041	120.45	120.08	302.87	10
4046	142.36	99.276	125.82	10
4047	257.69	298.5	157.46	10
4061	182.08	204.72	263.07	10
4073	257.01	153.17	314.4	10
4077	313.04	135.69	193.1	10
4083	169.52	252.26	232.67	10
4098	128.69	178.83	296.14	10
4103	314.28	232.47	247.96	10
4106	183.27	273.15	295.58	10
4117	143.93	220.96	226.44	10
4124	309.67	275.42	160.21	10
4130	243.07	169.37	265.75	10
4137	249.71	191.31	291.26	10
4143	236	200.1	242.66	10
4147	280.33	180.16	141.81	10
4163	116.8	134.65	123.38	10
4165	291.83	191.7	130.21	10
4166	230.34	208.6	166.87	10
4175	251.8	221.68	174.32	10
4178	212.68	225.54	232.29	10
4179	183.12	142.45	101.17	10
4192	315.48	139.46	281.72	10
4195	141.42	264.26	132.03	10
4208	223.79	254.87	239.03	10
4217	245.92	253.67	128.23	10
4220	97.719	190.46	312.04	10
4228	303.34	208.29	177.82	10
4234	291.36	266.45	279.95	10
4235	180.21	131.53	264.58	10
4236	123.76	287.47	101.84	10
4248	264.59	286.11	212.24	10
4272	131.08	187.14	150.67	10
